ExE(keV)	bu1	bu2	bu3	bu1bu2	bu2bu3	bu1bu3	all
1690.0	9.311	2.655	7.778	16.028	8.299	36.576	17.224
1695.0	9.41	2.739	7.886	16.107	8.307	36.228	17.211
1700.0	9.396	2.809	7.83	15.918	8.358	36.417	17.197
1705.0	9.465	2.742	7.795	16.104	8.284	36.312	17.131
1710.0	9.397	2.76	8.076	16.13	8.177	36.282	16.987
1715.0	9.574	2.796	7.911	16.04	8.356	36.2	16.896
1720.0	9.688	2.81	7.836	16.03	8.299	36.236	16.943
1725.0	9.492	2.78	7.973	16.051	8.277	36.342	16.886
1730.0	9.67	2.832	8.094	15.953	8.176	36.257	16.839
1735.0	9.545	2.758	8.086	16.013	8.481	36.251	16.627
1740.0	9.472	2.827	7.963	16.377	8.466	36.026	16.67
1745.0	9.44	2.818	8.065	16.225	8.34	36.213	16.645
1750.0	9.657	2.838	8.058	16.267	8.573	35.897	16.479
1755.0	9.612	2.798	8.124	16.084	8.406	36.24	16.485
1760.0	9.696	2.762	8.043	16.547	8.403	35.961	16.396
1765.0	9.669	2.765	8.212	16.306	8.382	36.072	16.304
1770.0	9.74	2.94	8.043	16.344	8.449	36.055	16.192
1775.0	9.733	2.812	8.11	16.369	8.597	35.708	16.384
1780.0	9.72	2.827	8.075	16.109	8.428	36.101	16.403
1785.0	9.846	2.896	8.279	16.224	8.478	35.926	16.106
1790.0	9.581	2.856	8.291	16.367	8.525	36.033	16.097
1795.0	9.695	2.886	8.344	16.331	8.468	36.005	15.945
1800.0	9.691	2.818	8.165	16.288	8.599	35.877	16.191
1805.0	9.677	2.782	8.413	16.379	8.608	36.037	15.857
1810.0	9.648	2.858	8.261	16.59	8.567	35.865	15.83
1815.0	9.837	2.883	8.425	16.533	8.717	35.568	15.7
1820.0	9.749	2.862	8.467	16.552	8.558	35.808	15.639
1825.0	9.703	2.872	8.333	16.61	8.671	35.727	15.631
1830.0	9.712	2.866	8.418	16.582	8.629	35.941	15.453
1835.0	9.832	2.827	8.458	16.664	8.683	35.906	15.358
1840.0	9.845	2.874	8.56	16.477	8.666	35.85	15.393
1845.0	9.87	2.906	8.62	16.479	8.597	35.79	15.405
1850.0	9.84	2.829	8.447	16.46	8.787	35.812	15.406
1855.0	9.871	2.941	8.452	16.689	8.838	35.538	15.275
1860.0	9.867	2.885	8.528	16.791	8.906	35.461	15.15
1865.0	10.053	2.871	8.727	16.645	8.771	35.286	15.234
1870.0	9.875	2.944	8.655	16.941	8.78	35.203	15.203
1875.0	9.957	3.016	8.686	16.795	8.926	35.053	15.091
1880.0	10.012	2.903	8.859	16.938	8.711	35.144	15.006
1885.0	9.939	2.963	8.667	17.051	8.743	35.343	14.774
1890.0	9.93	2.962	8.838	16.789	8.94	35.251	14.765
1895.0	10.073	2.918	8.819	16.636	8.966	35.495	14.686
1900.0	10.015	2.959	8.96	16.669	9.024	35.214	14.686
1905.0	9.826	2.988	8.883	16.886	8.958	35.335	14.568
1910.0	9.811	2.915	9.06	16.852	9.004	35.343	14.476
1915.0	10.064	2.925	8.931	16.899	8.984	35.084	14.565
1920.0	10.051	3.057	8.857	17.085	8.918	35.012	14.42
1925.0	10.075	2.982	9.024	16.697	9.044	35.081	14.483
1930.0	10.062	3.0	9.076	16.987	8.997	35.01	14.355
1935.0	10.206	3.007	9.204	17.14	8.816	34.995	14.102
1940.0	10.108	2.984	9.077	16.959	9.274	35.067	13.977
1945.0	10.111	3.076	9.064	17.19	9.207	34.808	14.028
1950.0	10.164	3.046	9.212	17.041	9.158	34.924	13.845
1955.0	10.083	3.132	9.021	17.19	9.198	34.831	13.903
1960.0	10.128	2.995	9.254	16.885	9.344	34.9	13.964
1965.0	10.285	2.902	9.27	16.914	9.311	34.926	13.821
1970.0	10.067	2.865	9.419	17.127	9.368	34.652	13.849
1975.0	10.12	3.023	9.339	17.184	9.455	34.583	13.71
1980.0	10.143	3.133	9.322	17.028	9.308	34.709	13.708
1985.0	10.128	3.064	9.296	17.18	9.416	34.792	13.585
1990.0	10.126	3.037	9.494	17.146	9.408	34.736	13.405
1995.0	10.159	3.163	9.478	17.154	9.336	34.567	13.514
2000.0	10.135	3.068	9.538	17.216	9.375	34.633	13.396
2005.0	10.266	3.12	9.589	17.274	9.659	34.363	13.098
2009.9999999999998	10.198	3.054	9.514	16.876	9.57	34.666	13.404
2015.0000000000002	10.301	3.12	9.717	17.291	9.521	34.289	13.062
2020.0	10.248	3.187	9.561	17.175	9.644	34.136	13.249
2025.0	10.232	3.187	9.632	17.382	9.727	34.089	13.045
2029.9999999999998	10.343	3.165	9.638	17.106	9.653	34.287	13.092
2035.0000000000002	10.323	3.022	9.781	17.31	9.613	34.206	12.974
2040.0	10.33	3.218	9.788	17.138	9.781	34.186	12.835
2045.0	10.369	3.249	9.912	17.131	9.591	34.127	12.779
2050.0	10.318	3.111	9.931	17.141	9.915	33.92	12.887
2055.0	10.46	3.215	9.798	17.146	9.731	34.276	12.638
2060.0	10.462	3.107	9.87	17.393	9.742	33.77	12.837
2065.0	10.328	3.203	10.01	17.424	9.598	33.795	12.788
2070.0	10.162	3.256	9.949	17.394	9.815	33.863	12.697
2075.0	10.484	3.12	10.15	17.192	9.891	33.802	12.615
2080.0	10.306	3.236	10.071	17.393	9.872	33.68	12.625
2085.0	10.46	3.159	10.155	17.2	9.998	33.834	12.373
2090.0	10.628	3.2	10.101	17.184	9.932	33.455	12.542
2095.0	10.365	3.269	10.226	17.619	10.016	33.234	12.384
2100.0	10.412	3.243	10.293	17.361	10.092	33.595	12.164
2105.0	10.476	3.137	10.35	17.589	10.09	33.468	11.993
2110.0	10.476	3.356	10.412	17.29	10.144	33.208	12.221
2115.0	10.456	3.289	10.381	17.282	10.196	33.381	12.039
2120.0	10.432	3.378	10.497	17.166	10.247	33.318	12.041
2125.0	10.532	3.352	10.513	17.451	10.169	33.192	11.875
2130.0	10.447	3.285	10.369	17.749	10.164	33.074	11.913
2135.0	10.552	3.255	10.643	17.319	10.045	33.181	11.987
2140.0	10.447	3.329	10.763	17.296	10.326	33.283	11.668
2145.0	10.674	3.373	10.425	17.432	10.328	33.144	11.613
2150.0	10.446	3.338	10.56	17.442	10.315	33.254	11.598
2155.0	10.564	3.341	10.614	17.21	10.647	33.081	11.557
2160.0	10.467	3.394	10.85	17.562	10.393	32.809	11.407
2165.0	10.64	3.334	10.856	17.376	10.553	32.797	11.39
2170.0	10.63	3.288	10.766	17.7	10.429	32.863	11.253
2175.0	10.492	3.385	10.965	17.539	10.696	32.606	11.335
2180.0	10.615	3.317	11.003	17.377	10.506	32.855	11.338
2185.0	10.672	3.453	10.922	17.491	10.609	32.519	11.298
2190.0	10.684	3.353	10.881	17.575	10.612	32.437	11.287
2195.0	10.687	3.3	11.073	17.497	10.513	32.812	10.982
2200.0	10.554	3.383	10.917	17.587	10.727	32.615	11.023
2205.0	10.849	3.532	10.958	17.478	10.839	32.328	10.908
2210.0	10.444	3.39	11.446	17.672	10.748	32.386	10.794
2215.0	10.641	3.396	11.096	17.685	10.54	32.343	11.069
2220.0	10.624	3.438	11.087	17.678	10.902	32.485	10.658
2225.0	10.946	3.441	11.255	17.492	10.563	32.257	10.795
2230.0	10.685	3.42	11.314	17.782	10.798	32.069	10.737
2235.0	10.539	3.438	11.417	17.571	10.972	32.06	10.689
2240.0	10.767	3.52	11.415	17.58	10.947	31.96	10.503
2245.0	10.932	3.365	11.238	17.368	11.115	32.067	10.716
2250.0	10.799	3.561	11.575	17.511	11.035	31.945	10.278
2255.0	10.823	3.552	11.501	17.615	11.026	31.988	10.258
2260.0	10.766	3.465	11.592	17.654	10.974	31.885	10.347
2265.0	10.968	3.471	11.546	17.632	11.189	31.635	10.241
2270.0	10.798	3.599	11.666	17.403	11.084	31.738	10.397
2275.0	10.957	3.53	11.56	17.503	11.314	31.615	10.13
2280.0	10.737	3.517	11.733	17.446	11.356	31.699	10.068
2285.0	10.873	3.451	11.696	17.489	11.438	31.738	10.059
2290.0	10.887	3.567	11.853	17.572	11.343	31.439	10.002
2295.0	10.956	3.506	11.845	17.689	11.428	31.443	9.823
2300.0	10.991	3.564	11.917	17.709	11.456	31.147	9.827
2305.0	11.042	3.507	11.926	17.636	11.297	31.381	9.789
2310.0	10.843	3.615	11.963	17.637	11.416	31.298	9.823
2315.0	10.993	3.539	11.845	17.577	11.418	31.474	9.786
2320.0	10.972	3.5	11.843	17.726	11.458	31.222	9.804
2325.0	11.039	3.557	12.066	17.571	11.518	31.128	9.647
2330.0	11.01	3.679	12.032	17.545	11.666	30.985	9.6
2335.0	11.053	3.595	12.153	17.67	11.653	31.091	9.274
2340.0	11.187	3.759	12.214	17.514	11.66	30.749	9.402
2345.0	10.88	3.644	12.052	17.669	11.865	31.016	9.389
2350.0	11.076	3.535	12.294	17.83	11.74	30.74	9.278
2355.0	11.059	3.566	12.279	17.718	11.821	30.717	9.247
2360.0	11.095	3.728	12.355	17.675	11.705	30.565	9.314
2365.0	11.161	3.753	12.187	17.458	11.866	30.934	9.09
2370.0	11.132	3.572	12.436	17.5	11.75	30.792	9.175
2375.0	11.233	3.726	12.517	17.497	11.936	30.5	9.028
2380.0	11.25	3.66	12.356	17.419	12.019	30.549	9.178
2385.0	11.233	3.618	12.486	17.703	11.87	30.54	8.961
2390.0	11.405	3.586	12.69	17.583	11.894	30.325	9.035
2395.0	11.26	3.574	12.624	17.619	11.97	30.361	9.007
2400.0	11.263	3.744	12.513	17.604	12.009	30.269	8.993
2405.0	11.336	3.759	12.551	17.65	12.062	30.35	8.599
2410.0	11.217	3.761	12.887	17.651	12.034	30.15	8.653
2415.0	11.259	3.694	12.548	17.763	12.266	30.157	8.65
2420.0	11.311	3.724	12.651	17.628	12.157	30.089	8.684
2425.0	11.034	3.703	12.931	17.867	12.243	30.005	8.583
2430.0	11.311	3.681	12.847	17.609	12.376	29.892	8.545
2435.0	11.487	3.716	12.838	17.663	12.22	29.946	8.42
2440.0	11.529	3.704	12.754	17.659	12.307	29.942	8.438
2445.0	11.362	3.758	12.771	17.833	12.289	29.789	8.344
2450.0	11.463	3.736	12.722	17.743	12.462	29.609	8.428
2455.0	11.47	3.816	13.065	17.435	12.307	29.613	8.403
2460.0	11.362	3.766	12.887	18.004	12.588	29.336	8.24
2465.0	11.537	3.639	13.108	17.772	12.314	29.657	8.154
2470.0	11.422	3.833	13.173	17.689	12.42	29.298	8.313
2475.0	11.533	3.785	13.123	17.657	12.609	29.399	8.116
2480.0	11.649	3.867	13.124	17.458	12.455	29.401	8.166
2485.0	11.547	3.828	13.086	17.75	12.754	29.085	8.055
2490.0	11.613	3.745	13.383	17.567	12.652	29.341	7.836
2495.0	11.625	3.859	13.148	17.678	12.793	29.156	7.82
2500.0	11.606	3.778	13.366	17.578	12.692	29.205	7.922
2505.0	11.608	3.898	13.433	17.495	12.66	29.004	7.903
2510.0	11.604	3.849	13.417	17.715	12.767	28.883	7.773
2515.0	11.517	3.864	13.355	17.654	12.796	29.055	7.823
2520.0	11.633	3.849	13.419	17.754	12.719	29.004	7.634
2525.0	11.754	3.897	13.431	17.391	12.839	29.101	7.661
2530.0	11.679	3.723	13.463	17.909	12.836	28.729	7.704
2535.0	11.709	3.852	13.496	17.686	12.962	28.715	7.583
2540.0	11.596	3.931	13.493	17.735	13.22	28.53	7.441
2545.0	11.574	3.834	13.572	17.7	12.941	28.785	7.572
2550.0	11.732	3.887	13.674	17.602	13.039	28.558	7.525
2555.0	11.806	3.808	13.72	17.762	13.028	28.621	7.24
2560.0	11.668	3.907	13.804	17.572	12.987	28.449	7.513
2565.0	11.882	3.849	13.843	17.636	13.029	28.506	7.198
2570.0	11.997	3.857	13.724	17.76	12.981	28.398	7.206
2575.0	11.871	3.905	13.944	17.556	13.137	28.294	7.248
2580.0	11.939	3.969	13.866	17.561	13.17	28.204	7.213
2585.0	11.735	3.899	13.73	17.719	13.335	28.274	7.212
2590.0	11.913	3.983	13.844	17.688	13.21	28.252	6.964
2595.0	12.018	3.826	13.955	17.663	13.349	28.088	6.983
2600.0	11.88	3.851	13.835	17.863	13.43	28.124	6.947
2605.0	11.957	4.009	13.97	17.841	12.978	28.145	6.895
2610.0	11.848	4.003	13.828	17.717	13.555	27.885	6.981
2615.0	12.025	3.887	13.991	17.674	13.348	28.006	6.83
2620.0	12.193	3.991	14.012	17.578	13.384	27.832	6.778
2625.0	12.054	3.885	14.148	17.634	13.608	27.822	6.643
2630.0	12.212	3.978	14.174	17.718	13.478	27.672	6.573
2635.0	11.853	3.84	14.352	17.569	13.486	27.916	6.726
2640.0	12.167	3.844	14.363	17.755	13.548	27.559	6.739
2645.0	12.125	3.989	14.31	17.479	13.668	27.449	6.693
2650.0	12.187	4.015	14.301	17.663	13.643	27.367	6.577
2655.0	12.29	3.975	14.029	17.631	13.648	27.695	6.578
2660.0	12.193	4.018	14.272	17.455	13.899	27.302	6.454
2665.0	12.153	4.007	14.278	17.756	13.54	27.531	6.559
2670.0	12.276	4.084	14.425	17.49	13.76	27.28	6.454
2675.0	12.294	3.939	14.411	17.6	13.694	27.285	6.427
2680.0	12.257	3.944	14.44	17.695	13.631	27.208	6.444
2685.0	12.337	4.028	14.447	17.656	13.558	27.421	6.226
2690.0	12.232	4.008	14.445	17.669	13.888	27.219	6.255
2695.0	12.328	3.935	14.527	17.389	13.784	27.223	6.405
2700.0	12.403	4.025	14.292	17.785	13.819	27.128	6.25
2705.0	12.374	4.048	14.526	17.705	13.89	26.749	6.226
2710.0	12.358	4.151	14.402	17.508	13.889	26.928	6.252
2715.0	12.297	4.059	14.59	17.852	13.925	26.865	5.936
2720.0	12.178	4.044	14.749	17.659	14.058	26.955	6.054
2725.0	12.307	4.076	14.684	17.791	13.936	26.807	5.983
2730.0	12.516	4.056	14.601	17.46	14.076	26.979	5.979
2735.0	12.455	4.195	14.683	17.822	14.005	26.514	5.904
2740.0	12.445	3.981	14.575	17.665	14.044	26.836	5.911
2745.0	12.516	4.043	14.692	17.446	14.068	26.888	5.842
2750.0	12.598	4.076	14.719	17.677	13.992	26.524	5.816
2755.0	12.496	4.12	14.837	17.751	14.241	26.265	5.715
2760.0	12.491	4.071	14.693	18.0	14.167	26.461	5.703
2765.0	12.668	4.351	14.771	17.588	14.2	26.463	5.625
2770.0	12.626	4.188	14.637	17.674	14.235	26.434	5.646
2775.0	12.529	4.175	15.124	17.832	14.287	25.973	5.61
2780.0	12.796	4.122	14.665	17.583	14.162	26.449	5.633
2785.0	12.651	4.188	14.893	17.743	14.196	26.312	5.501
2790.0	12.663	4.09	14.998	17.785	14.364	25.999	5.59
2795.0	12.73	4.153	14.799	17.756	14.394	26.119	5.489
2800.0	12.619	4.183	15.065	17.665	14.274	26.153	5.501
2805.0	12.884	4.177	15.232	17.581	14.325	25.844	5.344
2810.0	12.947	4.066	15.051	17.664	14.507	25.813	5.358
2815.0	12.645	4.247	15.19	17.614	14.383	25.8	5.456
2820.0	12.867	4.186	15.17	17.538	14.524	25.785	5.317
2825.0	12.741	4.218	15.245	17.462	14.426	25.784	5.474
2830.0	12.686	4.113	15.019	17.724	14.502	25.844	5.365
2835.0	12.799	4.163	15.121	17.65	14.43	25.728	5.346
2840.0	12.948	4.172	15.253	17.48	14.51	25.669	5.27
2845.0	12.851	4.225	15.15	17.626	14.548	25.681	5.18
2850.0	12.84	4.256	15.226	17.851	14.527	25.412	5.229
2855.0	12.901	4.242	15.401	17.639	14.578	25.446	5.068
2860.0	12.897	4.273	15.095	17.582	14.736	25.608	5.111
2865.0	13.219	4.2	15.344	17.583	14.735	25.195	4.959
2870.0	12.965	4.203	15.63	17.356	14.755	25.37	5.037
2875.0	13.071	4.227	15.279	17.4	14.75	25.686	4.911
2880.0	13.012	4.205	15.407	17.368	14.713	25.402	5.082
2885.0	13.021	4.209	15.531	17.453	14.814	25.261	4.989
2890.0	13.17	4.256	15.559	17.642	14.698	24.939	4.995
2895.0	13.226	4.248	15.511	17.433	14.763	25.131	5.026
2900.0	13.27	4.321	15.43	17.445	14.849	25.052	4.817
2905.0	13.12	4.316	15.604	17.475	14.901	24.99	4.775
2910.0	13.071	4.315	15.466	17.708	14.859	24.983	4.832
2915.0	13.263	4.337	15.538	17.547	14.876	24.914	4.673
2920.0	13.151	4.258	15.577	17.393	14.872	25.191	4.839
2925.0	13.292	4.224	15.493	17.594	15.083	24.773	4.705
2930.0	13.008	4.192	15.663	17.582	14.781	25.175	4.735
2935.0	13.361	4.313	15.675	17.571	14.991	24.617	4.548
2940.0	13.2	4.303	15.727	17.422	14.723	25.032	4.696
2945.0	13.395	4.258	15.767	17.537	14.771	24.733	4.575
2950.0	13.358	4.196	15.648	17.603	15.096	24.698	4.617
2955.0	13.536	4.326	15.62	17.592	15.083	24.389	4.607
2960.0	13.347	4.32	15.756	17.36	14.945	24.718	4.516
2965.0	13.502	4.321	15.68	17.458	15.168	24.477	4.464
2970.0	13.397	4.278	15.766	17.669	14.889	24.534	4.535
2975.0	13.43	4.215	15.627	17.61	15.034	24.648	4.504
2980.0	13.343	4.274	15.947	17.74	14.948	24.42	4.36
2985.0	13.439	4.418	16.044	17.529	15.163	24.154	4.414
2990.0	13.367	4.26	15.789	17.613	15.296	24.399	4.374
2995.0	13.69	4.3	15.984	17.37	15.292	24.091	4.213
3000.0	13.473	4.376	15.946	17.467	15.262	24.119	4.326
3005.0	13.535	4.361	15.729	17.737	15.391	24.037	4.205
3010.0	13.747	4.342	15.802	17.526	15.347	24.037	4.159
3015.0	13.57	4.258	15.975	17.559	15.363	24.147	4.158
3020.0	13.572	4.332	16.018	17.802	15.147	23.954	4.125
3025.0	13.638	4.381	16.294	17.473	15.239	23.725	4.189
3030.0	13.733	4.444	16.012	17.64	15.211	23.987	4.069
3035.0	13.856	4.33	15.939	17.674	15.14	24.007	4.065
3040.0	13.815	4.437	16.081	17.424	15.578	23.545	4.066
3045.0	13.839	4.572	15.924	17.371	15.444	23.736	4.114
3050.0	13.569	4.452	16.234	17.423	15.514	23.756	3.975
3055.0	13.755	4.433	15.917	17.704	15.253	23.725	4.074
3060.0	13.66	4.401	16.178	17.596	15.55	23.825	3.852
3065.0	13.794	4.477	16.233	17.362	15.28	23.817	3.966
3070.0	13.993	4.431	16.162	17.37	15.452	23.633	3.905
3075.0	13.926	4.414	16.335	17.247	15.323	23.65	3.962
3080.0	13.9	4.474	16.178	17.443	15.593	23.407	3.82
3085.0	13.946	4.445	16.167	17.398	15.602	23.411	3.865
3090.0	14.165	4.333	16.149	17.413	15.367	23.522	3.915
3095.0	14.023	4.589	16.306	17.403	15.381	23.314	3.905
3100.0	14.253	4.481	16.305	17.685	15.429	23.109	3.632
3105.0	14.111	4.483	16.321	17.549	15.276	23.246	3.788
3110.0	14.102	4.432	16.469	17.553	15.53	23.079	3.679
3115.0	14.237	4.456	16.133	17.583	15.454	23.283	3.573
3120.0	14.1	4.47	16.477	17.422	15.623	23.067	3.654
3125.0	14.096	4.421	16.256	17.411	15.566	23.252	3.677
3130.0	14.064	4.444	16.546	17.161	15.742	23.15	3.582
3135.0	14.27	4.31	16.577	17.359	15.563	23.18	3.612
3140.0	14.345	4.486	16.246	17.426	15.591	23.18	3.543
3145.0	14.242	4.569	16.508	17.439	15.698	22.756	3.513
3150.0	14.328	4.431	16.625	17.395	15.69	22.872	3.59
3155.0	14.471	4.544	16.494	17.436	15.635	22.713	3.529
3160.0	14.268	4.662	16.231	17.493	15.771	22.783	3.531
3165.0	14.22	4.639	16.387	17.286	15.85	22.817	3.562
3170.0	14.364	4.484	16.551	17.406	15.712	22.784	3.51
3175.0	14.501	4.529	16.514	17.408	15.738	22.702	3.409
3180.0	14.343	4.567	16.785	17.243	15.948	22.652	3.283
3185.0	14.443	4.542	16.451	17.718	15.891	22.37	3.335
3190.0	14.429	4.676	16.76	17.153	15.999	22.36	3.311
3195.0	14.622	4.577	16.632	17.337	15.911	22.406	3.304
3200.0	14.66	4.576	16.728	17.302	15.624	22.592	3.207
3205.0	14.615	4.546	16.536	17.083	15.924	22.579	3.344
3210.0	14.486	4.535	16.672	17.492	15.735	22.487	3.213
3215.0	14.456	4.602	16.763	17.274	16.043	22.202	3.263
3220.0	14.745	4.678	16.801	17.428	15.904	22.029	3.222
3225.0	14.55	4.662	16.783	17.229	15.946	22.281	3.151
3230.0	14.634	4.706	16.809	17.407	15.888	22.134	3.108
3235.0	14.651	4.624	16.731	17.06	16.138	22.224	3.123
3240.0	14.574	4.595	16.601	17.509	16.047	22.214	3.166
3245.0	14.581	4.645	16.919	17.208	15.969	22.185	3.033
3250.0	14.507	4.582	16.843	17.31	16.182	22.09	3.003
3255.0	14.791	4.601	16.762	17.395	16.224	21.974	3.038
3260.0	14.687	4.703	16.877	17.095	16.109	22.132	3.032
3265.0	14.828	4.569	16.8	17.498	16.037	21.927	3.019
3270.0	14.92	4.555	16.95	17.286	16.071	21.867	2.968
3275.0	14.565	4.789	17.061	17.23	16.271	21.809	2.857
3280.0	14.785	4.652	16.756	17.339	16.084	21.975	2.979
3285.0	14.831	4.655	17.078	17.25	16.021	21.72	2.992
3290.0	14.979	4.618	17.056	17.304	16.245	21.548	2.849
3295.0	14.854	4.71	17.205	17.269	16.169	21.475	2.935
3300.0	14.895	4.616	17.167	17.528	15.726	21.689	2.88
3305.0	15.01	4.837	17.042	17.169	16.119	21.549	2.82
3310.0	14.984	4.813	17.095	17.226	16.061	21.565	2.777
3315.0	15.021	4.701	17.022	17.253	16.202	21.533	2.787
3320.0	15.199	4.663	17.039	16.962	16.161	21.679	2.821
3325.0	15.226	4.741	17.032	17.161	16.031	21.448	2.798
3330.0	14.944	4.876	17.062	17.13	16.267	21.303	2.797
3335.0	15.147	4.766	17.035	17.414	16.138	21.294	2.789
3340.0	15.109	4.85	17.035	17.272	16.159	21.272	2.749
3345.0	15.225	4.724	17.088	17.063	16.167	21.333	2.678
3350.0	15.274	4.724	17.153	17.284	16.23	21.178	2.805
3355.0	15.118	4.747	17.142	17.209	16.355	21.276	2.59
3360.0	15.143	4.84	17.219	17.218	16.277	21.166	2.658
3365.0	15.231	4.815	17.168	17.283	16.43	21.054	2.47
3370.0	15.319	4.841	17.2	17.03	16.158	21.381	2.616
3375.0	15.218	4.82	17.182	17.135	16.507	21.044	2.543
3380.0	15.321	4.756	17.211	17.264	16.167	20.97	2.596
3385.0	15.343	4.913	17.413	17.173	16.276	20.868	2.572
3390.0	15.422	4.85	17.305	17.165	16.301	20.826	2.569
3395.0	15.379	4.927	17.181	17.201	16.656	20.605	2.494
3400.0	15.374	4.798	17.37	17.347	16.205	20.887	2.542
3405.0	15.345	4.949	17.459	17.069	16.307	20.637	2.529
3410.0	15.367	4.776	17.461	17.388	16.131	20.8	2.429
3415.0	15.32	4.854	17.386	17.139	16.458	20.682	2.522
3420.0	15.467	4.884	17.438	17.199	16.244	20.783	2.382
3425.0	15.476	4.935	17.284	17.229	16.454	20.61	2.366
3430.0	15.649	4.788	17.573	17.031	16.524	20.368	2.465
3435.0	15.461	4.869	17.149	17.019	16.661	20.768	2.387
3440.0	15.674	4.851	17.625	17.19	16.365	20.35	2.37
3445.0	15.871	4.905	17.36	17.07	16.527	20.335	2.375
3450.0	15.677	4.793	17.37	17.094	16.522	20.48	2.382
3455.0	15.68	4.917	17.496	17.05	16.594	20.185	2.362
3460.0	15.417	4.851	17.629	17.117	16.742	20.182	2.371
3465.0	15.716	4.901	17.475	16.954	16.439	20.6	2.21
3470.0	15.989	4.8	17.357	16.977	16.468	20.428	2.231
3475.0	15.851	4.87	17.718	17.02	16.54	19.998	2.289
3480.0	15.929	4.962	17.599	17.086	16.316	20.016	2.315
3485.0	15.851	4.965	17.469	16.888	16.58	20.286	2.248
3490.0	15.905	4.858	17.615	17.09	16.702	19.901	2.215
3495.0	15.956	5.053	17.462	16.91	16.773	20.073	2.171
3500.0	15.995	4.796	17.675	16.996	16.597	20.085	2.185
3505.0	15.887	4.963	17.703	17.078	16.78	19.842	2.102
3510.0	15.783	4.898	17.668	16.854	16.858	20.02	2.132
3515.0	16.092	4.877	17.786	17.2	16.423	19.999	2.115
3520.0	15.878	5.084	17.733	17.132	16.495	19.824	2.11
3525.0	16.108	5.095	17.768	16.916	16.634	19.583	2.093
3530.0	16.062	4.998	17.788	17.18	16.543	19.739	2.017
3535.0	15.968	5.075	17.763	17.019	16.678	19.954	2.041
3540.0	16.115	5.074	17.868	16.8	16.652	19.824	2.019
3545.0	16.185	5.006	17.669	16.851	16.612	19.784	2.052
3550.0	15.926	5.076	17.738	17.018	16.82	19.553	1.957
3555.0	16.158	5.02	17.786	16.975	16.627	19.666	2.03
3560.0	16.228	5.081	17.997	16.836	16.498	19.583	1.968
